{
    "version": {
        "VERS": {
            "value": 2.0,
            "unit": "",
            "desc": "CWLS Log ASCII Standard - VERSION 2.0"
        },
        "WRAP": {
            "value": false,
            "unit": "",
            "desc": "One line per depth step"
        }
    },
    "well": {
        "STRT": {
            "value": 6.0,
            "unit": "FT",
            "desc": "START DEPTH"
        },
        "STOP": {
            "value": 3533.5,
            "unit": "FT",
            "desc": "STOP DEPTH"
        },
        "STEP": {
            "value": 0.5,
            "unit": "FT",
            "desc": "STEP"
        },
        "NULL": {
            "value": null,
            "unit": "",
            "desc": "NULL VALUE"
        },
        "COMP": {
            "value": "BLACK STONE PETROLEUM, LLC.",
            "unit": "",
            "desc": "COMPANY"
        },
        "FLD": {
            "value": "OTIS-ALBERT",
            "unit": "",
            "desc": "FIELD"
        },
        "LOC": {
            "value": "530' FSL & 440' FWL",
            "unit": "",
            "desc": "LOCATION"
        },
        "CNTY": {
            "value": "RUSH",
            "unit": "",
            "desc": "COUNTY"
        },
        "SRVC": {
            "value": "ELI WIRELINE",
            "unit": "",
            "desc": "SERVICE COMPANY"
        },
        "DATE": {
            "value": "Tue Apr 17 03-35-34 2018",
            "unit": "",
            "desc": "LOG DATE"
        },
        "UWI": {
            "value": "15-165-22157-00-00",
            "unit": "",
            "desc": "UNIQUE WELL ID"
        },
        "STAT": {
            "value": "KANSAS",
            "unit": "",
            "desc": "STATE"
        },
        "SECT": {
            "value": 23,
            "unit": "",
            "desc": "SECTION"
        },
        "TOWN": {
            "value": "18S",
            "unit": "",
            "desc": "TOWNSHIP"
        },
        "RANG": {
            "value": "16W",
            "unit": "",
            "desc": "RANGE"
        },
        "OS": {
            "value": "--DIL/MEL--SONIC------------------------",
            "unit": "",
            "desc": "OTHER SERVICES"
        },
        "PDAT": {
            "value": "GROUND LEVEL",
            "unit": "FT",
            "desc": "PERMANENT DATUM"
        },
        "EEL": {
            "value": 1944,
            "unit": "FT",
            "desc": "ELEVATION"
        },
        "LMF": {
            "value": "KELLY BUSHING 5' A.G.L",
            "unit": "FT",
            "desc": "LOG MEASURED FROM"
        },
        "DMF": {
            "value": "KELLY BUSHING",
            "unit": "FT",
            "desc": "DRILLING MEASURED FROM"
        },
        "EKB": {
            "value": 1949,
            "unit": "FT",
            "desc": "KB"
        },
        "EDF": {
            "value": 1947,
            "unit": "FT",
            "desc": "DF"
        },
        "EGL": {
            "value": 1944,
            "unit": "FT",
            "desc": "GL"
        },
        "DATE1": {
            "value": "4/16/18",
            "unit": "",
            "desc": "DATE1"
        },
        "RUN1": {
            "value": "ONE",
            "unit": "",
            "desc": "RUN NUMBER"
        },
        "TDD1": {
            "value": 3525,
            "unit": "FT",
            "desc": "DEPTH DRILLER"
        },
        "TDL1": {
            "value": 3526,
            "unit": "FT",
            "desc": "DEPTH LOGGER"
        },
        "BLI1": {
            "value": 3501,
            "unit": "FT",
            "desc": "BOTTOM LOGGED INTERVAL"
        },
        "TLI1": {
            "value": 1000,
            "unit": "FT",
            "desc": "TOP LOG INTERVAL"
        },
        "CDD1": {
            "value": "8 5/8\" @ 980",
            "unit": "IN_FT",
            "desc": "CASING DRILLER"
        },
        "CDL1": {
            "value": 980,
            "unit": "FT",
            "desc": "CASING LOGGER"
        },
        "BS1": {
            "value": "7 7/8",
            "unit": "IN",
            "desc": "BIT SIZE"
        },
        "DFT1": {
            "value": "CHEMICAL MUD",
            "unit": "",
            "desc": "TYPE FLUID IN HOLE"
        },
        "DFDV1": {
            "value": "9.2/42",
            "unit": "GM/C3_CP",
            "desc": "DENSITY/VISCOSITY"
        },
        "DFPL1": {
            "value": "10.3/10.2",
            "unit": "C3",
            "desc": "PH/FLUID LOSS"
        },
        "MSS1": {
            "value": "FLOWLINE",
            "unit": "",
            "desc": "SOURCE OF SAMPLE"
        },
        "RMT1": {
            "value": "2.3 @ 62F",
            "unit": "OHHM_DEGF",
            "desc": "RM@MEASURED TEMP"
        },
        "RMFT1": {
            "value": "1.72 @ 62F",
            "unit": "OHMM_DEGF",
            "desc": "RMF@MEASURED TEMP"
        },
        "RMCT1": {
            "value": "2.76 @ 62F",
            "unit": "OHMM_DEGF",
            "desc": "RMC@MEASURED TEMP"
        },
        "RMFS1": {
            "value": "MEASUREMENT",
            "unit": "",
            "desc": "SOURCE OF RMF/RMC"
        },
        "RMBT1": {
            "value": "1.27 @ 112F",
            "unit": "OHMM_DEGF",
            "desc": "RM@BHT"
        },
        "TCS1": {
            "value": "2 HOURS",
            "unit": "",
            "desc": "TIME CIRCULATION STOPPED"
        },
        "TLOB1": {
            "value": "////",
            "unit": "",
            "desc": "TIME LOGGER ON BOTTOM"
        },
        "BHT1": {
            "value": "112F",
            "unit": "DEGF",
            "desc": "MAXIMUM RECORDED TEMPERATURE"
        },
        "LUN1": {
            "value": 3802,
            "unit": "",
            "desc": "EQUIPMENT NUMBER"
        },
        "LUL1": {
            "value": "HAYS, KANSAS",
            "unit": "",
            "desc": "LOCATION"
        },
        "ENGI1": {
            "value": "GUS PFANENSTIEL",
            "unit": "",
            "desc": "RECORDED BY"
        },
        "WITN1": {
            "value": "KEATON JONES",
            "unit": "",
            "desc": "WITNESSED BY"
        }
    },
    "curve": {
        "DEPT": {
            "api_code": "0 000 00 00",
            "unit": "FT",
            "desc": "Depth"
        },
        "CNPOR": {
            "api_code": 0,
            "unit": "PU",
            "desc": "CN Selected Porosity"
        },
        "DCAL": {
            "api_code": 0,
            "unit": "IN",
            "desc": "Caliper from Density Tool"
        },
        "DPOR": {
            "api_code": 0,
            "unit": "PU",
            "desc": "Density Porosity"
        },
        "GR": {
            "api_code": 0,
            "unit": "GAPI",
            "desc": "Gamma Ray"
        },
        "RHOB": {
            "api_code": 0,
            "unit": "G/CC",
            "desc": "Bulk Density"
        },
        "RHOC": {
            "api_code": 0,
            "unit": "G/CC",
            "desc": "Density Correction"
        },
        "RILD": {
            "api_code": 0,
            "unit": "OHM-M",
            "desc": "DIL Deep Resistivity"
        },
        "RILM": {
            "api_code": 0,
            "unit": "OHM-M",
            "desc": "DIL Medium Resistivity"
        },
        "RLL3": {
            "api_code": 0,
            "unit": "OHM-M",
            "desc": "DIL Shallow Resistivity"
        },
        "RxoRt": {
            "api_code": 0,
            "unit": "",
            "desc": "Rxo / Rt"
        },
        "SP": {
            "api_code": 0,
            "unit": "MV",
            "desc": "DIL Spontaneous Potential"
        },
        "MEL15": {
            "api_code": 0,
            "unit": "OHM-M",
            "desc": "MICRO 1.5"
        },
        "MEL20": {
            "api_code": 0,
            "unit": "OHM-M",
            "desc": "MICRO 2.O"
        },
        "DT": {
            "api_code": 0,
            "unit": "USEC/FT",
            "desc": "DELTA TIME"
        },
        "ITT": {
            "api_code": 0,
            "unit": "MSEC",
            "desc": "Integrated Travel Time Blips"
        },
        "MELCAL": {
            "api_code": 0,
            "unit": "IN",
            "desc": "MICRO CALIPER"
        },
        "SPOR": {
            "api_code": 0,
            "unit": "PU",
            "desc": "SONIC POROSITY"
        }
    },
    "parameter": {},
    "data": {
        "dept": [
            1050.5,
            1051.0,
            1051.5,
            1052.0,
            1052.5,
            1053.0,
            1053.5,
            1054.0,
            1054.5,
            1055.0,
            1055.5,
            1056.0,
            1056.5,
            1057.0,
            1057.5,
            1058.0,
            1058.5,
            1059.0,
            1059.5,
            1060.0,
            1060.5,
            1061.0,
            1061.5,
            1062.0,
            1062.5,
            1063.0,
            1063.5,
            1064.0,
            1064.5,
            1065.0,
            1065.5,
            1066.0,
            1066.5,
            1067.0,
            1067.5,
            1068.0,
            1068.5,
            1069.0,
            1069.5,
            1070.0,
            1070.5,
            1071.0,
            1071.5,
            1072.0,
            1072.5,
            1073.0,
            1073.5,
            1074.0,
            1074.5,
            1075.0,
            1075.5,
            1076.0,
            1076.5,
            1077.0,
            1077.5,
            1078.0,
            1078.5,
            1079.0,
            1079.5,
            1080.0,
            1080.5,
            1081.0,
            1081.5,
            1082.0,
            1082.5,
            1083.0,
            1083.5,
            1084.0,
            1084.5,
            1085.0,
            1085.5,
            1086.0,
            1086.5,
            1087.0,
            1087.5,
            1088.0,
            1088.5,
            1089.0,
            1089.5,
            1090.0,
            1090.5,
            1091.0,
            1091.5,
            1092.0,
            1092.5,
            1093.0,
            1093.5,
            1094.0,
            1094.5,
            1095.0,
            1095.5,
            1096.0,
            1096.5,
            1097.0,
            1097.5,
            1098.0,
            1098.5,
            1099.0,
            1099.5,
            1100.0,
            1100.5,
            1101.0,
            1101.5,
            1102.0,
            1102.5,
            1103.0,
            1103.5,
            1104.0,
            1104.5,
            1105.0,
            1105.5,
            1106.0,
            1106.5,
            1107.0,
            1107.5,
            1108.0,
            1108.5,
            1109.0,
            1109.5,
            1110.0,
            1110.5,
            1111.0,
            1111.5,
            1112.0,
            1112.5,
            1113.0,
            1113.5,
            1114.0,
            1114.5,
            1115.0,
            1115.5,
            1116.0,
            1116.5,
            1117.0,
            1117.5,
            1118.0,
            1118.5,
            1119.0,
            1119.5,
            1120.0,
            1120.5,
            1121.0,
            1121.5,
            1122.0,
            1122.5,
            1123.0,
            1123.5,
            1124.0,
            1124.5,
            1125.0,
            1125.5,
            1126.0,
            1126.5,
            1127.0,
            1127.5,
            1128.0,
            1128.5,
            1129.0,
            1129.5,
            1130.0,
            1130.5,
            1131.0,
            1131.5,
            1132.0,
            1132.5,
            1133.0,
            1133.5,
            1134.0,
            1134.5,
            1135.0,
            1135.5,
            1136.0,
            1136.5,
            1137.0,
            1137.5,
            1138.0,
            1138.5,
            1139.0,
            1139.5,
            1140.0,
            1140.5,
            1141.0,
            1141.5,
            1142.0,
            1142.5,
            1143.0,
            1143.5,
            1144.0,
            1144.5,
            1145.0,
            1145.5,
            1146.0,
            1146.5,
            1147.0,
            1147.5,
            1148.0,
            1148.5,
            1149.0,
            1149.5,
            1150.0,
            1150.5
        ],
        "cnpor": [
            32.5832,
            32.128,
            31.195,
            31.3769,
            33.6808,
            34.446,
            33.7603,
            34.9111,
            37.2165,
            38.1259,
            36.1681,
            31.9024,
            27.1174,
            23.2076,
            21.2085,
            21.5641,
            23.4315,
            24.1765,
            21.8555,
            18.6814,
            17.6339,
            19.2854,
            22.68,
            25.178,
            24.6926,
            22.8433,
            22.3795,
            23.7564,
            25.6023,
            26.2535,
            25.8485,
            25.9738,
            26.8086,
            27.2886,
            26.8112,
            25.8581,
            24.4926,
            23.7952,
            25.06,
            28.4482,
            33.8047,
            37.647,
            36.1731,
            31.982,
            31.1935,
            33.579,
            34.4735,
            33.0552,
            33.8398,
            37.5288,
            38.2985,
            34.7654,
            31.1955,
            30.0115,
            30.1866,
            28.2848,
            24.793,
            23.0402,
            23.6806,
            26.183,
            30.3122,
            34.7929,
            36.8048,
            36.5738,
            36.183,
            34.1824,
            30.0041,
            26.248,
            24.3182,
            24.4952,
            26.953,
            30.5821,
            33.8303,
            34.918,
            32.0235,
            27.0306,
            23.64,
            24.4248,
            27.9863,
            30.385,
            30.5436,
            30.0005,
            28.9253,
            26.5381,
            24.458,
            23.985,
            23.7393,
            22.7708,
            23.7359,
            28.1299,
            30.2432,
            28.3352,
            27.1775,
            26.1664,
            25.1694,
            25.8115,
            27.9989,
            30.9033,
            31.8625,
            29.4528,
            26.3962,
            24.0539,
            23.6178,
            25.6308,
            27.477,
            26.8018,
            24.3936,
            22.7208,
            23.2674,
            24.1633,
            23.943,
            24.7291,
            26.5561,
            27.5598,
            29.1069,
            30.6552,
            30.154,
            28.3388,
            26.8734,
            26.6933,
            27.3795,
            27.9415,
            27.5158,
            26.2941,
            25.5788,
            25.8046,
            25.8126,
            25.8818,
            27.9702,
            31.7815,
            34.5586,
            34.4854,
            31.6199,
            26.9279,
            25.3146,
            28.6851,
            33.3388,
            35.7365,
            35.8527,
            33.6133,
            31.3727,
            33.5908,
            36.9231,
            37.7134,
            38.516,
            39.564,
            39.1827,
            36.1987,
            31.5199,
            27.8871,
            26.2183,
            27.507,
            32.3779,
            36.6324,
            35.55,
            30.6347,
            27.386,
            27.7808,
            29.413,
            30.2012,
            29.0381,
            26.4959,
            24.5921,
            23.9905,
            23.7234,
            22.8407,
            21.8895,
            22.614,
            25.8109,
            28.2646,
            27.5886,
            26.4675,
            27.3754,
            28.6573,
            28.2803,
            26.4188,
            24.7253,
            25.5832,
            27.7949,
            28.3175,
            26.8551,
            25.8512,
            25.7353,
            24.4097,
            22.3779,
            22.2461,
            24.1221,
            26.8606,
            29.748,
            33.0357,
            36.0786,
            35.0725,
            30.8543,
            27.8814,
            26.1847,
            25.2108,
            24.4725,
            23.6787,
            25.9528,
            30.8417,
            33.5433
        ],
        "dcal": [
            10.0585,
            10.0515,
            10.0423,
            10.0266,
            10.04,
            10.0146,
            9.9779,
            9.9578,
            9.9415,
            9.917,
            9.8403,
            9.7527,
            9.7049,
            9.686,
            9.6833,
            9.6886,
            9.7037,
            9.7409,
            9.782,
            9.8001,
            9.8202,
            9.8072,
            9.8002,
            9.8029,
            9.8072,
            9.8268,
            9.8681,
            9.9314,
            9.9772,
            10.017,
            10.046,
            10.0509,
            10.0662,
            10.0745,
            10.0796,
            10.1009,
            10.106,
            10.1105,
            10.1216,
            10.1499,
            10.1618,
            10.1559,
            10.1681,
            10.2273,
            10.3245,
            10.3972,
            10.4808,
            10.5182,
            10.4636,
            10.2086,
            9.9272,
            9.8786,
            9.9543,
            10.017,
            10.057,
            10.0977,
            10.0919,
            10.067,
            10.0568,
            10.0527,
            10.0592,
            10.0327,
            9.9715,
            9.9103,
            9.7951,
            9.7486,
            9.7578,
            9.7857,
            9.7924,
            9.7845,
            9.7878,
            9.795,
            9.7753,
            9.7556,
            9.7466,
            9.7518,
            9.7498,
            9.7409,
            9.722,
            9.709,
            9.7129,
            9.7083,
            9.7145,
            9.7096,
            9.7157,
            9.7199,
            9.7341,
            9.7539,
            9.7587,
            9.7604,
            9.7679,
            9.7772,
            9.776,
            9.7878,
            9.803,
            9.8136,
            9.8161,
            9.8195,
            9.8195,
            9.8174,
            9.8393,
            9.8323,
            9.8024,
            9.7814,
            9.7819,
            9.8186,
            9.8371,
            9.8405,
            9.8556,
            9.8912,
            9.9104,
            9.9085,
            10.0836,
            10.0324,
            9.589,
            9.4099,
            9.3896,
            9.3904,
            9.4264,
            9.4802,
            9.4959,
            9.5262,
            9.553,
            9.5717,
            9.5609,
            9.465,
            9.3835,
            10.0537,
            11.2365,
            11.7829,
            11.7271,
            11.4754,
            10.9314,
            10.4854,
            10.306,
            10.32,
            10.1658,
            10.0933,
            10.2117,
            10.3147,
            10.1849,
            10.02,
            10.1238,
            10.4491,
            10.6871,
            10.3276,
            9.9299,
            9.7483,
            9.659,
            9.6322,
            9.6182,
            9.6148,
            9.6156,
            9.6278,
            9.6443,
            9.6511,
            9.654,
            9.6935,
            9.6997,
            9.6772,
            9.6963,
            9.7214,
            9.7343,
            9.738,
            9.7479,
            9.7215,
            9.6583,
            9.6024,
            9.561,
            9.5256,
            9.4905,
            9.463,
            9.4466,
            9.4479,
            9.4574,
            9.4533,
            9.4625,
            9.4657,
            9.466,
            9.4691,
            9.4627,
            9.514,
            9.6045,
            9.6384,
            9.6807,
            9.6572,
            9.6244,
            9.6361,
            9.7343,
            10.0535,
            10.0917,
            9.898,
            9.8966,
            9.9581,
            10.1255,
            10.208,
            10.1547,
            10.0702,
            9.7155,
            9.4051,
            9.3711
        ],
        "dpor": [
            17.9032,
            18.5949,
            18.9051,
            19.3326,
            19.7614,
            19.6943,
            18.8026,
            17.5038,
            16.6086,
            16.2732,
            15.8196,
            14.9646,
            14.3042,
            14.3449,
            14.6894,
            14.663,
            14.151,
            13.5922,
            13.5487,
            14.2869,
            15.5237,
            16.6132,
            16.8974,
            16.062,
            14.6192,
            13.7494,
            14.0755,
            14.9597,
            15.6394,
            16.145,
            16.6937,
            17.0527,
            16.8563,
            16.0954,
            15.096,
            14.2494,
            13.5682,
            12.7429,
            11.9637,
            12.0818,
            13.5038,
            15.5805,
            17.3163,
            18.1716,
            18.1903,
            17.8476,
            17.7417,
            17.9588,
            17.5363,
            15.3836,
            12.2717,
            10.6848,
            11.9443,
            14.8207,
            17.5234,
            19.452,
            20.8153,
            21.5498,
            21.3652,
            20.4524,
            19.6266,
            19.5211,
            19.8777,
            19.7205,
            18.3608,
            16.2595,
            14.6209,
            13.8392,
            13.1311,
            12.2905,
            12.4893,
            14.2924,
            16.1628,
            16.2225,
            14.6788,
            13.4243,
            13.3969,
            13.7965,
            13.8683,
            13.9354,
            14.2348,
            14.233,
            13.3586,
            11.6153,
            9.4182,
            7.5336,
            7.0433,
            8.7336,
            12.0791,
            15.4957,
            17.6898,
            18.3682,
            17.8123,
            16.5255,
            15.3716,
            15.1313,
            16.0467,
            17.6759,
            19.1929,
            19.6411,
            18.6447,
            16.8225,
            15.0421,
            13.7665,
            13.2417,
            13.6815,
            14.9428,
            16.4322,
            17.4771,
            17.9783,
            18.8448,
            21.0753,
            23.7548,
            24.0007,
            20.17,
            14.7315,
            11.6511,
            11.8369,
            13.4396,
            15.2761,
            17.158,
            18.6963,
            19.4733,
            19.6623,
            19.8125,
            20.6249,
            22.5176,
            24.6429,
            25.3615,
            24.1987,
            22.3652,
            21.1063,
            20.676,
            20.9835,
            21.6215,
            21.9208,
            22.2735,
            23.8036,
            26.1131,
            26.9931,
            25.2068,
            22.089,
            20.2351,
            21.2528,
            24.1018,
            25.8651,
            24.3219,
            20.3926,
            17.0553,
            16.0499,
            16.7069,
            17.5083,
            17.6169,
            17.3112,
            17.3587,
            17.9766,
            18.495,
            18.3448,
            17.9251,
            18.0533,
            18.7005,
            18.8289,
            17.8055,
            16.4966,
            16.3279,
            17.6116,
            19.1471,
            19.5085,
            18.4548,
            17.1277,
            16.7303,
            17.2932,
            18.1337,
            18.9543,
            19.7221,
            20.1265,
            20.1061,
            20.1442,
            20.2948,
            19.6891,
            17.8617,
            15.711,
            14.715,
            15.5473,
            17.5105,
            18.8948,
            18.5556,
            17.3621,
            17.3264,
            19.0624,
            21.0163,
            21.5196,
            20.6399,
            19.6948,
            19.6391,
            20.2933,
            20.7082,
            20.0302,
            18.4217,
            17.1981,
            17.4089
        ],
        "gr": [
            79.5602,
            80.2299,
            81.9803,
            82.8217,
            83.5442,
            94.0615,
            99.2326,
            89.5152,
            78.0707,
            74.7581,
            77.3632,
            76.385,
            75.5567,
            75.5553,
            74.9521,
            72.598,
            69.9245,
            60.7765,
            51.7019,
            58.4877,
            74.9386,
            81.763,
            82.6314,
            92.6318,
            89.5456,
            80.5635,
            76.6634,
            73.5067,
            76.4045,
            77.5991,
            75.613,
            71.817,
            77.3543,
            83.0494,
            84.0733,
            87.2651,
            81.7039,
            74.4906,
            70.1257,
            70.4759,
            71.9551,
            79.1878,
            84.4902,
            79.3189,
            74.7658,
            76.4734,
            73.8916,
            70.7707,
            71.7206,
            67.4982,
            64.5731,
            61.0359,
            57.6674,
            58.1478,
            61.953,
            74.2105,
            86.872,
            89.0153,
            88.6821,
            88.043,
            89.8838,
            94.1645,
            96.9665,
            94.9785,
            87.7888,
            76.5173,
            63.3643,
            64.3725,
            68.3775,
            70.699,
            73.8999,
            68.0128,
            65.913,
            74.6949,
            80.8701,
            81.017,
            80.2086,
            81.9023,
            83.3987,
            78.7818,
            78.4074,
            91.491,
            102.5087,
            99.8673,
            97.0876,
            90.1123,
            80.042,
            73.3041,
            71.0122,
            83.6562,
            95.1922,
            99.0641,
            90.7141,
            83.7318,
            82.447,
            84.0002,
            92.789,
            94.0225,
            85.3073,
            80.9269,
            79.8612,
            83.6721,
            85.0534,
            86.6402,
            79.6964,
            66.5269,
            61.2022,
            65.6064,
            77.4032,
            90.1956,
            92.9147,
            89.4375,
            88.2544,
            86.1154,
            83.2067,
            78.1751,
            66.7435,
            56.9231,
            56.5342,
            62.1252,
            68.7047,
            75.5708,
            83.1917,
            86.939,
            90.4424,
            89.3244,
            90.7281,
            91.8618,
            87.7973,
            82.4488,
            83.3576,
            84.9083,
            82.495,
            87.8966,
            93.6074,
            92.4019,
            85.9303,
            77.2124,
            75.5067,
            82.6673,
            91.1443,
            92.5441,
            82.8196,
            78.3583,
            81.1694,
            88.0715,
            90.9155,
            89.1539,
            83.4539,
            73.103,
            70.8209,
            79.2897,
            92.3818,
            95.8134,
            91.0835,
            88.2117,
            91.8437,
            102.1979,
            102.4561,
            93.8477,
            88.6416,
            87.2199,
            91.3706,
            87.4496,
            80.2083,
            78.0285,
            80.5925,
            85.1801,
            88.8514,
            94.3608,
            86.5352,
            81.5391,
            82.7558,
            86.0318,
            90.2182,
            93.2143,
            96.6016,
            96.5451,
            91.6512,
            85.6297,
            79.2047,
            72.9449,
            75.232,
            81.6307,
            81.66,
            87.9351,
            96.7989,
            95.7224,
            88.6641,
            87.0245,
            95.2736,
            96.6419,
            90.5682,
            89.211,
            90.2586,
            95.5337,
            99.3512,
            100.4007,
            97.8631,
            97.0859,
            92.0148
        ],
        "rhob": [
            2.4039,
            2.392,
            2.3867,
            2.3794,
            2.3721,
            2.3732,
            2.3885,
            2.4107,
            2.426,
            2.4317,
            2.4395,
            2.4541,
            2.4654,
            2.4647,
            2.4588,
            2.4593,
            2.468,
            2.4776,
            2.4783,
            2.4657,
            2.4445,
            2.4259,
            2.4211,
            2.4353,
            2.46,
            2.4749,
            2.4693,
            2.4542,
            2.4426,
            2.4339,
            2.4245,
            2.4184,
            2.4218,
            2.4348,
            2.4519,
            2.4663,
            2.478,
            2.4921,
            2.5054,
            2.5034,
            2.4791,
            2.4436,
            2.4139,
            2.3993,
            2.3989,
            2.4048,
            2.4066,
            2.4029,
            2.4101,
            2.4469,
            2.5002,
            2.5273,
            2.5058,
            2.4566,
            2.4104,
            2.3774,
            2.3541,
            2.3415,
            2.3447,
            2.3603,
            2.3744,
            2.3762,
            2.3701,
            2.3728,
            2.396,
            2.432,
            2.46,
            2.4733,
            2.4855,
            2.4998,
            2.4964,
            2.4656,
            2.4336,
            2.4326,
            2.459,
            2.4804,
            2.4809,
            2.4741,
            2.4729,
            2.4717,
            2.4666,
            2.4666,
            2.4816,
            2.5114,
            2.5489,
            2.5812,
            2.5896,
            2.5607,
            2.5034,
            2.445,
            2.4075,
            2.3959,
            2.4054,
            2.4274,
            2.4471,
            2.4513,
            2.4356,
            2.4077,
            2.3818,
            2.3741,
            2.3912,
            2.4223,
            2.4528,
            2.4746,
            2.4836,
            2.476,
            2.4545,
            2.429,
            2.4111,
            2.4026,
            2.3878,
            2.3496,
            2.3038,
            2.2996,
            2.3651,
            2.4581,
            2.5108,
            2.5076,
            2.4802,
            2.4488,
            2.4166,
            2.3903,
            2.377,
            2.3738,
            2.3712,
            2.3573,
            2.3249,
            2.2886,
            2.2763,
            2.2962,
            2.3276,
            2.3491,
            2.3564,
            2.3512,
            2.3403,
            2.3352,
            2.3291,
            2.303,
            2.2635,
            2.2484,
            2.279,
            2.3323,
            2.364,
            2.3466,
            2.2979,
            2.2677,
            2.2941,
            2.3613,
            2.4184,
            2.4355,
            2.4243,
            2.4106,
            2.4088,
            2.414,
            2.4132,
            2.4026,
            2.3937,
            2.3963,
            2.4035,
            2.4013,
            2.3902,
            2.388,
            2.4055,
            2.4279,
            2.4308,
            2.4088,
            2.3826,
            2.3764,
            2.3944,
            2.4171,
            2.4239,
            2.4143,
            2.3999,
            2.3859,
            2.3728,
            2.3658,
            2.3662,
            2.3655,
            2.363,
            2.3733,
            2.4046,
            2.4413,
            2.4584,
            2.4441,
            2.4106,
            2.3869,
            2.3927,
            2.4131,
            2.4137,
            2.384,
            2.3506,
            2.342,
            2.3571,
            2.3732,
            2.3742,
            2.363,
            2.3559,
            2.3675,
            2.395,
            2.4159,
            2.4123
        ],
        "rhoc": [
            0.0456,
            0.0415,
            0.0415,
            0.0389,
            0.0312,
            0.0225,
            0.0214,
            0.0304,
            0.0417,
            0.0471,
            0.048,
            0.0486,
            0.0477,
            0.0416,
            0.032,
            0.0261,
            0.0297,
            0.0426,
            0.0574,
            0.0647,
            0.06,
            0.0461,
            0.0319,
            0.0272,
            0.033,
            0.0383,
            0.0347,
            0.0281,
            0.0285,
            0.0361,
            0.0448,
            0.0504,
            0.0523,
            0.0517,
            0.0507,
            0.0484,
            0.0437,
            0.0408,
            0.0439,
            0.0475,
            0.0427,
            0.0291,
            0.0159,
            0.0126,
            0.0207,
            0.0327,
            0.0357,
            0.0227,
            0.0038,
            -0.0002,
            0.0165,
            0.0358,
            0.0402,
            0.0331,
            0.0256,
            0.0205,
            0.0153,
            0.0133,
            0.0207,
            0.0367,
            0.0511,
            0.0532,
            0.0409,
            0.0229,
            0.0127,
            0.0172,
            0.0281,
            0.0351,
            0.0413,
            0.0551,
            0.0699,
            0.07,
            0.0558,
            0.0449,
            0.0479,
            0.0549,
            0.0548,
            0.0513,
            0.052,
            0.0547,
            0.0553,
            0.0544,
            0.053,
            0.0492,
            0.0452,
            0.0476,
            0.058,
            0.0671,
            0.0641,
            0.0475,
            0.0248,
            0.0062,
            -0.0013,
            0.0044,
            0.0167,
            0.0272,
            0.029,
            0.019,
            -0.0013,
            -0.0202,
            -0.0238,
            -0.0123,
            0.0019,
            0.0116,
            0.02,
            0.0285,
            0.0326,
            0.0302,
            0.0315,
            0.0522,
            0.0918,
            0.1207,
            0.1103,
            0.0721,
            0.0474,
            0.0524,
            0.0665,
            0.0706,
            0.0661,
            0.0564,
            0.0425,
            0.0287,
            0.0202,
            0.0208,
            0.0359,
            0.0699,
            0.116,
            0.1602,
            0.1961,
            0.2279,
            0.2585,
            0.2838,
            0.2962,
            0.2876,
            0.2588,
            0.2266,
            0.2023,
            0.1741,
            0.1286,
            0.0806,
            0.062,
            0.0891,
            0.147,
            0.1944,
            0.1949,
            0.1502,
            0.1,
            0.0771,
            0.0767,
            0.0757,
            0.0642,
            0.0491,
            0.0413,
            0.0429,
            0.0476,
            0.0489,
            0.0481,
            0.0495,
            0.0519,
            0.0492,
            0.0394,
            0.0294,
            0.028,
            0.0344,
            0.039,
            0.034,
            0.0215,
            0.0108,
            0.0092,
            0.015,
            0.0219,
            0.0285,
            0.0363,
            0.0402,
            0.0337,
            0.0202,
            0.0092,
            0.0034,
            0.0011,
            0.0066,
            0.0249,
            0.0494,
            0.0648,
            0.0614,
            0.0433,
            0.026,
            0.0244,
            0.0367,
            0.0455,
            0.0395,
            0.0289,
            0.0346,
            0.0684,
            0.1232,
            0.1752,
            0.1994,
            0.1881,
            0.156,
            0.1216,
            0.0905,
            0.0607
        ],
        "rild": [
            3.0509,
            2.8827,
            2.7525,
            2.6669,
            2.6358,
            2.6152,
            2.5755,
            2.544,
            2.5533,
            2.5938,
            2.6457,
            2.7202,
            2.8312,
            2.9722,
            3.1135,
            3.1539,
            3.0141,
            2.7866,
            2.5838,
            2.4459,
            2.3575,
            2.2944,
            2.2436,
            2.2011,
            2.2032,
            2.2865,
            2.4609,
            2.7366,
            3.1206,
            3.5328,
            3.8658,
            4.0832,
            4.2202,
            4.4274,
            4.7945,
            5.1783,
            5.5861,
            6.0182,
            6.333,
            6.7012,
            7.0283,
            6.9155,
            6.5921,
            6.3265,
            6.0465,
            5.9187,
            5.9211,
            5.8314,
            5.6617,
            5.3771,
            4.9096,
            4.3439,
            3.7209,
            3.1631,
            2.7647,
            2.4897,
            2.2893,
            2.1499,
            2.0365,
            1.9467,
            1.9301,
            1.9998,
            2.1206,
            2.2767,
            2.4737,
            2.6903,
            2.9058,
            3.0912,
            3.1318,
            2.9674,
            2.7161,
            2.4575,
            2.2639,
            2.1287,
            2.0134,
            1.9297,
            1.877,
            1.815,
            1.7586,
            1.7302,
            1.7357,
            1.7906,
            1.8867,
            1.9721,
            2.0376,
            2.1084,
            2.2029,
            2.3788,
            2.6561,
            2.9361,
            3.0946,
            3.094,
            2.9509,
            2.7929,
            2.7031,
            2.6663,
            2.6675,
            2.7167,
            2.8119,
            2.9401,
            3.0688,
            3.1596,
            3.1726,
            3.1127,
            3.0406,
            2.9769,
            2.8973,
            2.8579,
            2.846,
            2.7854,
            2.7194,
            2.7639,
            2.9268,
            3.1304,
            3.2788,
            3.261,
            3.1097,
            2.9934,
            2.9177,
            2.8003,
            2.6428,
            2.4714,
            2.3308,
            2.2498,
            2.2211,
            2.2006,
            2.1656,
            2.1296,
            2.1066,
            2.1387,
            2.2595,
            2.3579,
            2.3373,
            2.3178,
            2.3518,
            2.4007,
            2.5086,
            2.6487,
            2.6767,
            2.6066,
            2.5031,
            2.306,
            2.079,
            1.9463,
            1.9014,
            1.8975,
            1.8801,
            1.8084,
            1.7085,
            1.6501,
            1.678,
            1.7841,
            1.8979,
            1.9502,
            1.9135,
            1.8481,
            1.8384,
            1.8969,
            1.9762,
            2.0437,
            2.0936,
            2.1313,
            2.174,
            2.2331,
            2.3364,
            2.4937,
            2.7087,
            3.0171,
            3.3883,
            3.6919,
            3.8109,
            3.6615,
            3.2856,
            2.9378,
            2.6447,
            2.4032,
            2.256,
            2.2145,
            2.2547,
            2.3187,
            2.3474,
            2.3488,
            2.3464,
            2.3661,
            2.4043,
            2.4116,
            2.3553,
            2.2657,
            2.1561,
            2.007,
            1.8351,
            1.6672,
            1.5255,
            1.4284,
            1.3605,
            1.3084,
            1.2813,
            1.2758,
            1.2734,
            1.2803,
            1.3053
        ],
        "rilm": [
            2.1582,
            1.9597,
            1.8472,
            1.7759,
            1.7251,
            1.7162,
            1.7591,
            1.8141,
            1.8296,
            1.8245,
            1.8499,
            1.8951,
            1.9198,
            1.9572,
            2.0792,
            2.2917,
            2.4953,
            2.5215,
            2.3103,
            1.9929,
            1.732,
            1.5825,
            1.5403,
            1.5765,
            1.6815,
            1.8606,
            2.0987,
            2.3481,
            2.5503,
            2.738,
            2.9571,
            3.1233,
            3.1976,
            3.2635,
            3.4551,
            3.9005,
            4.6235,
            5.4095,
            5.9303,
            5.8875,
            5.4825,
            5.2009,
            5.0303,
            4.6268,
            4.1924,
            4.0105,
            4.0814,
            4.3028,
            4.5259,
            4.6004,
            4.3479,
            3.7617,
            3.1552,
            2.6321,
            2.1561,
            1.7839,
            1.5672,
            1.4724,
            1.4243,
            1.3932,
            1.3939,
            1.4359,
            1.5361,
            1.7302,
            2.015,
            2.3026,
            2.4969,
            2.624,
            2.7296,
            2.7055,
            2.4073,
            2.0472,
            1.8124,
            1.7128,
            1.6996,
            1.7102,
            1.7351,
            1.7908,
            1.8247,
            1.7397,
            1.5754,
            1.454,
            1.4322,
            1.5099,
            1.6958,
            1.9589,
            2.1874,
            2.2878,
            2.3117,
            2.3592,
            2.4414,
            2.4994,
            2.5146,
            2.4936,
            2.4329,
            2.345,
            2.254,
            2.1824,
            2.1644,
            2.2313,
            2.3745,
            2.5099,
            2.5737,
            2.6239,
            2.6385,
            2.4951,
            2.2409,
            2.0276,
            1.9275,
            1.9221,
            1.9461,
            1.927,
            1.9209,
            2.112,
            2.5489,
            2.909,
            2.7725,
            2.4264,
            2.1743,
            2.0153,
            1.8642,
            1.7247,
            1.6227,
            1.5512,
            1.5002,
            1.4797,
            1.4827,
            1.4699,
            1.4408,
            1.4437,
            1.4973,
            1.6099,
            1.811,
            2.0318,
            2.1027,
            2.073,
            2.0619,
            2.0318,
            2.0125,
            2.1075,
            2.2809,
            2.3544,
            2.1715,
            1.8381,
            1.606,
            1.5375,
            1.5761,
            1.6462,
            1.6692,
            1.6056,
            1.521,
            1.4928,
            1.5472,
            1.6755,
            1.8185,
            1.8969,
            1.8852,
            1.8436,
            1.8207,
            1.8056,
            1.7981,
            1.8502,
            1.9563,
            2.0404,
            2.0845,
            2.1538,
            2.3111,
            2.5398,
            2.8478,
            3.2056,
            3.4707,
            3.4225,
            3.0582,
            2.6779,
            2.3833,
            2.1353,
            1.9363,
            1.8348,
            1.8187,
            1.8443,
            1.9248,
            2.0429,
            2.1313,
            2.1673,
            2.1779,
            2.1866,
            2.1707,
            2.0728,
            1.9042,
            1.7545,
            1.6287,
            1.483,
            1.3128,
            1.1634,
            1.0635,
            1.0268,
            1.0392,
            1.0783,
            1.1322,
            1.1808,
            1.1949
        ],
        "rll3": [
            1.5002,
            1.4925,
            1.4896,
            1.4493,
            1.4019,
            1.3637,
            1.398,
            1.508,
            1.6636,
            1.6784,
            1.7142,
            1.8368,
            1.8438,
            1.7937,
            1.8522,
            2.0075,
            2.1331,
            2.1987,
            2.1092,
            1.8671,
            1.6801,
            1.6637,
            1.753,
            1.8838,
            2.0156,
            2.1984,
            2.443,
            2.6164,
            2.6898,
            2.7091,
            2.7307,
            2.6987,
            2.6271,
            2.7768,
            2.8297,
            3.074,
            3.4106,
            3.5384,
            3.4722,
            3.3589,
            3.115,
            2.9228,
            2.761,
            2.5244,
            2.3798,
            2.4225,
            2.4438,
            2.4524,
            2.3469,
            2.1802,
            2.177,
            2.0553,
            1.8388,
            1.7588,
            1.6177,
            1.4664,
            1.4157,
            1.4283,
            1.4554,
            1.4285,
            1.3808,
            1.385,
            1.4265,
            1.5256,
            1.7292,
            1.9034,
            2.0466,
            2.0094,
            1.8328,
            1.7175,
            1.5608,
            1.2865,
            1.1349,
            1.2072,
            1.4406,
            1.5931,
            1.4794,
            1.4028,
            1.5234,
            1.4988,
            1.2695,
            1.1985,
            1.3056,
            1.446,
            1.6912,
            1.968,
            1.9475,
            1.9468,
            1.8844,
            1.7218,
            1.6256,
            1.5643,
            1.4998,
            1.4742,
            1.4218,
            1.3426,
            1.3959,
            1.5125,
            1.538,
            1.5268,
            1.546,
            1.5717,
            1.5192,
            1.5196,
            1.6343,
            1.6057,
            1.4453,
            1.3348,
            1.2754,
            1.3289,
            1.4602,
            1.5271,
            1.4481,
            1.3747,
            1.4463,
            1.4802,
            1.4516,
            1.275,
            1.1998,
            1.2283,
            1.2101,
            1.1761,
            1.1724,
            1.1644,
            1.1284,
            1.1011,
            1.085,
            1.071,
            1.0306,
            0.9813,
            0.9482,
            0.933,
            0.9567,
            0.9694,
            0.9778,
            1.0674,
            1.1172,
            0.9869,
            0.8621,
            0.8382,
            0.8738,
            0.9371,
            0.9506,
            0.8991,
            0.8495,
            0.8448,
            0.8966,
            1.015,
            1.1155,
            1.067,
            1.0011,
            0.9518,
            0.9555,
            1.0631,
            1.2017,
            1.1856,
            1.0743,
            0.9602,
            0.9187,
            0.9643,
            1.0232,
            1.0888,
            1.155,
            1.2162,
            1.2217,
            1.0829,
            0.9651,
            0.9197,
            0.9401,
            0.9765,
            0.967,
            0.9477,
            0.9446,
            0.9105,
            0.88,
            0.8669,
            0.8783,
            0.9663,
            0.9801,
            0.9102,
            0.9024,
            0.948,
            0.9427,
            0.9298,
            0.9013,
            0.8395,
            0.8758,
            0.9846,
            1.0201,
            0.9215,
            0.8819,
            0.8769,
            0.8355,
            0.7938,
            0.7669,
            0.7664,
            0.8214,
            0.8784,
            0.938,
            1.0211,
            1.007
        ],
        "rxort": [
            27.7464,
            25.7279,
            23.9992,
            23.8383,
            24.6772,
            25.4507,
            23.881,
            20.4394,
            16.7446,
            17.0144,
            16.9633,
            15.3498,
            16.7641,
            19.7405,
            20.2998,
            17.6587,
            13.5136,
            9.2622,
            7.9316,
            10.5554,
            13.2392,
            12.5641,
            9.6443,
            6.0839,
            3.4794,
            1.5352,
            0.2854,
            1.7548,
            5.806,
            10.376,
            13.5865,
            16.1858,
            18.527,
            18.2346,
            20.6102,
            20.3838,
            19.2846,
            20.7594,
            23.4901,
            26.9955,
            31.8047,
            33.6618,
            34.0159,
            35.9103,
            36.4469,
            34.9161,
            34.5906,
            33.8566,
            34.4216,
            35.2849,
            31.7861,
            29.2507,
            27.5499,
            22.9406,
            20.9478,
            20.6916,
            18.7874,
            15.9825,
            13.1296,
            12.099,
            13.0919,
            14.3598,
            15.4977,
            15.6495,
            13.9953,
            13.5243,
            13.7004,
            16.8345,
            20.9406,
            21.3731,
            21.6536,
            25.2966,
            26.9902,
            22.1719,
            13.0839,
            7.4919,
            9.3028,
            10.0675,
            5.6117,
            5.6103,
            12.2253,
            15.6926,
            14.3904,
            12.1285,
            7.2843,
            2.6932,
            4.8177,
            7.8339,
            13.4161,
            20.8605,
            25.1627,
            26.658,
            26.4518,
            24.9754,
            25.1119,
            26.8174,
            25.3128,
            22.8899,
            23.5832,
            25.6125,
            26.7976,
            27.2952,
            28.7803,
            28.0268,
            24.2653,
            24.1298,
            27.1829,
            29.7566,
            31.3735,
            28.9255,
            24.3072,
            23.1878,
            27.5048,
            32.1664,
            31.9915,
            30.8718,
            29.7773,
            33.3594,
            34.7324,
            32.2117,
            30.5328,
            29.0237,
            26.8582,
            25.7443,
            26.4697,
            27.0647,
            27.0136,
            26.8654,
            27.9432,
            30.4514,
            33.9391,
            36.2397,
            34.9162,
            34.0723,
            34.3036,
            31.6787,
            31.6188,
            38.5889,
            44.2815,
            44.3464,
            41.1357,
            35.1962,
            30.5874,
            30.1886,
            31.4897,
            31.6309,
            28.9428,
            22.5752,
            16.6626,
            17.0391,
            20.1905,
            24.5573,
            26.8251,
            23.7153,
            18.184,
            17.3496,
            20.9985,
            26.6118,
            29.9404,
            29.3593,
            27.9831,
            26.2528,
            24.7195,
            23.75,
            25.3411,
            32.6044,
            40.3363,
            46.4366,
            50.1149,
            51.9805,
            53.6051,
            52.8275,
            48.7234,
            45.7858,
            43.0109,
            39.8512,
            36.8741,
            32.4172,
            32.5625,
            36.5499,
            37.3674,
            35.4631,
            35.6422,
            36.5088,
            38.3518,
            41.2463,
            38.6658,
            32.5768,
            29.2515,
            30.4228,
            28.6444,
            25.1149,
            23.5343,
            22.9626,
            22.4074,
            20.906,
            17.3762,
            14.5867,
            11.9495,
            8.844,
            10.1426
        ],
        "sp": [
            19.6955,
            20.2316,
            20.6386,
            20.9277,
            21.1727,
            21.3495,
            21.2825,
            20.8623,
            20.2605,
            19.7565,
            19.4182,
            19.0959,
            18.6621,
            18.1447,
            17.6776,
            17.4203,
            17.4821,
            17.8523,
            18.4526,
            19.2718,
            20.3353,
            21.5434,
            22.6488,
            23.4001,
            23.6792,
            23.5388,
            23.1733,
            22.8484,
            22.7851,
            23.0733,
            23.6741,
            24.4499,
            25.2058,
            25.7692,
            26.0467,
            26.0064,
            25.6656,
            25.0863,
            24.3143,
            23.4394,
            22.7444,
            22.5719,
            23.0353,
            23.9581,
            25.0412,
            26.0617,
            26.9187,
            27.506,
            27.6121,
            27.0279,
            25.8015,
            24.3447,
            23.2246,
            22.8188,
            23.1175,
            23.8302,
            24.6654,
            25.4412,
            26.0034,
            26.1992,
            25.9244,
            25.1483,
            23.9802,
            22.7624,
            21.9862,
            22.0032,
            22.81,
            24.0755,
            25.2905,
            25.9983,
            26.0281,
            25.4626,
            24.4482,
            23.1782,
            21.9818,
            21.2685,
            21.3125,
            22.1009,
            23.3812,
            24.755,
            25.7718,
            26.1527,
            25.9499,
            25.369,
            24.5422,
            23.6013,
            22.8026,
            22.4431,
            22.7072,
            23.5267,
            24.5035,
            25.091,
            24.9511,
            24.124,
            22.9178,
            21.7298,
            20.9135,
            20.6619,
            20.9559,
            21.6257,
            22.4295,
            23.0763,
            23.2647,
            22.78,
            21.6245,
            20.0884,
            18.6435,
            17.7166,
            17.5068,
            17.9515,
            18.8266,
            19.8626,
            20.7623,
            21.1986,
            20.9652,
            20.1364,
            19.0022,
            17.9327,
            17.3616,
            17.7066,
            19.1294,
            21.323,
            23.5598,
            25.0957,
            25.5983,
            25.1737,
            24.1098,
            22.7017,
            21.2585,
            20.1501,
            19.7103,
            20.0724,
            21.16,
            22.6991,
            24.1929,
            25.1244,
            25.2527,
            24.6797,
            23.7061,
            22.6107,
            21.5746,
            20.7577,
            20.2925,
            20.2424,
            20.5905,
            21.1333,
            21.4994,
            21.4811,
            21.2282,
            21.0441,
            21.147,
            21.5739,
            22.1628,
            22.6699,
            22.991,
            23.247,
            23.6173,
            24.1383,
            24.6596,
            24.9324,
            24.7669,
            24.1613,
            23.3032,
            22.4214,
            21.6343,
            20.979,
            20.5435,
            20.5151,
            21.0631,
            22.1096,
            23.2841,
            24.1583,
            24.4445,
            24.0573,
            23.1419,
            22.019,
            21.0616,
            20.5715,
            20.6589,
            21.2339,
            22.1,
            22.9798,
            23.5531,
            23.6364,
            23.2901,
            22.7117,
            22.1017,
            21.6534,
            21.5585,
            21.9419,
            22.8164,
            24.0812,
            25.4772,
            26.6052,
            27.1221,
            26.8959,
            25.9446,
            24.4153,
            22.7086,
            21.387,
            20.8241
        ],
        "mel15": [
            2.929,
            2.7246,
            2.757,
            2.7001,
            2.7831,
            2.8135,
            2.7507,
            2.8237,
            3.2305,
            3.7021,
            3.1033,
            3.1442,
            3.8227,
            4.1668,
            3.7819,
            3.933,
            4.5975,
            5.8892,
            5.7545,
            5.394,
            3.7013,
            2.9667,
            2.8647,
            3.1418,
            3.4212,
            3.3453,
            4.3517,
            5.268,
            5.0521,
            4.9056,
            3.9402,
            5.0627,
            3.8693,
            4.0711,
            4.062,
            3.4388,
            4.9076,
            5.4862,
            5.0352,
            4.2641,
            4.9491,
            3.8501,
            3.1223,
            4.2933,
            4.5815,
            3.536,
            3.7206,
            2.9065,
            2.9448,
            2.8222,
            2.8131,
            4.7887,
            5.2125,
            4.228,
            3.9126,
            2.9248,
            2.6315,
            2.6177,
            2.6061,
            2.5366,
            2.5013,
            2.483,
            2.4811,
            2.4289,
            3.2279,
            3.9103,
            4.0511,
            4.8494,
            5.8337,
            5.6563,
            5.7411,
            5.7113,
            3.0469,
            2.6564,
            2.798,
            4.0513,
            3.7043,
            3.2411,
            3.8195,
            4.1361,
            3.6087,
            2.9503,
            2.868,
            3.0159,
            3.1236,
            4.0607,
            6.4886,
            5.5021,
            6.7286,
            3.6007,
            2.9945,
            4.5667,
            3.7882,
            3.1301,
            3.9753,
            3.8058,
            3.5436,
            3.2708,
            2.8334,
            2.7957,
            2.7217,
            2.9676,
            3.1624,
            2.8886,
            3.8396,
            5.5258,
            4.2316,
            3.3284,
            2.9929,
            2.721,
            3.5821,
            3.7853,
            3.1068,
            2.0952,
            2.285,
            3.5582,
            5.3723,
            6.621,
            3.2467,
            3.1265,
            3.2213,
            2.903,
            2.7583,
            2.7971,
            2.8088,
            2.6111,
            2.5605,
            2.1588,
            1.7695,
            1.8373,
            1.8576,
            1.8319,
            1.7888,
            1.7658,
            2.3449,
            2.6143,
            2.111,
            2.7248,
            2.3796,
            2.134,
            2.0445,
            2.1306,
            2.6056,
            2.5697,
            1.9893,
            1.664,
            1.9146,
            2.5764,
            3.152,
            3.0236,
            2.9042,
            3.1023,
            2.8731,
            2.8091,
            3.3562,
            3.2363,
            2.834,
            2.6091,
            2.1085,
            2.189,
            2.5994,
            2.587,
            2.7858,
            3.0818,
            4.4662,
            4.2358,
            3.0934,
            2.9234,
            2.7603,
            3.0612,
            3.1667,
            3.323,
            3.3886,
            3.3936,
            3.493,
            3.4206,
            2.9705,
            2.9543,
            3.9235,
            3.0667,
            2.7109,
            3.3807,
            3.6731,
            3.6833,
            3.523,
            3.0401,
            2.5598,
            2.5928,
            3.1539,
            2.9738,
            2.0749,
            2.0773,
            2.5146,
            2.3188,
            2.1988,
            2.0498,
            1.9615,
            2.2164,
            2.2034,
            2.9358,
            3.8765
        ],
        "mel20": [
            1.9486,
            1.7639,
            1.8193,
            1.8224,
            1.8848,
            2.0213,
            1.9164,
            2.0146,
            2.0066,
            2.3147,
            2.4287,
            2.4327,
            2.7985,
            3.7271,
            3.3127,
            3.0506,
            3.4492,
            4.1926,
            5.1044,
            5.198,
            3.9315,
            2.6461,
            2.1814,
            2.2086,
            2.6235,
            2.691,
            3.389,
            4.1845,
            4.6024,
            4.8054,
            3.9192,
            4.2565,
            4.2995,
            3.0847,
            3.8952,
            3.0279,
            3.5031,
            4.8458,
            5.5083,
            4.2962,
            5.0459,
            4.2227,
            2.9028,
            3.1383,
            4.7044,
            3.4247,
            3.2157,
            2.9919,
            2.7117,
            3.0034,
            2.7295,
            3.5536,
            4.7546,
            3.5608,
            3.6372,
            2.9879,
            2.1098,
            1.9607,
            2.0257,
            2.0144,
            1.9013,
            1.7297,
            1.6398,
            1.5532,
            1.8823,
            2.6682,
            3.0497,
            3.6309,
            4.5776,
            4.6721,
            4.5982,
            3.6799,
            2.9915,
            1.828,
            1.808,
            2.5552,
            3.4651,
            2.6933,
            2.7481,
            4.3213,
            3.8661,
            2.6772,
            2.0679,
            2.3973,
            2.5205,
            3.114,
            4.985,
            5.4127,
            5.9085,
            4.6937,
            2.6637,
            2.7971,
            3.6413,
            2.6376,
            3.0838,
            3.3847,
            3.0715,
            2.8899,
            2.3207,
            2.0911,
            1.9357,
            2.0702,
            2.6489,
            2.6121,
            2.7401,
            3.9543,
            4.852,
            3.2795,
            2.706,
            2.0707,
            2.2244,
            2.8583,
            2.6626,
            2.0412,
            1.6047,
            2.2198,
            3.4604,
            5.7171,
            4.059,
            2.7769,
            2.6673,
            2.4404,
            2.257,
            2.1661,
            2.3126,
            2.0484,
            1.6789,
            1.5515,
            1.4909,
            1.6613,
            1.5175,
            1.4527,
            1.3967,
            1.436,
            1.6348,
            1.8257,
            1.9199,
            1.9925,
            2.121,
            1.6798,
            1.8006,
            1.9396,
            1.9465,
            1.8161,
            1.6557,
            1.6852,
            1.5982,
            1.6462,
            2.1484,
            2.714,
            2.4004,
            2.3677,
            2.2358,
            1.9935,
            2.1586,
            2.7874,
            2.4559,
            1.994,
            1.7179,
            1.604,
            1.7492,
            1.8645,
            1.9456,
            2.1092,
            2.6596,
            3.4428,
            2.6379,
            2.2961,
            2.1138,
            2.2996,
            2.7207,
            2.8013,
            3.0209,
            3.3913,
            2.7348,
            2.9383,
            2.6993,
            2.387,
            2.5836,
            2.9651,
            2.4972,
            2.5855,
            2.9416,
            3.5704,
            3.7435,
            3.1034,
            2.5094,
            2.1237,
            2.049,
            2.6814,
            2.0472,
            1.8941,
            1.7815,
            1.6657,
            1.3123,
            1.3448,
            1.3423,
            1.3279,
            1.6974,
            1.8567,
            2.1294
        ],
        "dt": [
            118.9128,
            118.1055,
            116.785,
            115.3865,
            115.8483,
            119.1154,
            122.9245,
            123.449,
            119.1292,
            112.0714,
            105.5268,
            100.9215,
            97.7563,
            95.0836,
            92.4107,
            89.7916,
            87.4923,
            85.8179,
            85.2423,
            86.3946,
            89.5968,
            94.3005,
            99.0899,
            102.3411,
            103.1023,
            101.5878,
            98.8667,
            96.1051,
            94.1341,
            93.4304,
            94.0862,
            95.8275,
            98.1636,
            100.5097,
            102.4657,
            104.1236,
            105.6377,
            106.3938,
            105.3465,
            102.5678,
            100.053,
            100.0782,
            102.4156,
            104.3926,
            104.1924,
            102.6843,
            101.7105,
            101.9416,
            102.6849,
            103.2038,
            103.3572,
            102.6498,
            100.5221,
            98.2093,
            98.1781,
            101.4618,
            106.8744,
            112.1674,
            115.4735,
            116.613,
            116.8616,
            117.2394,
            117.5993,
            117.0761,
            114.9855,
            111.3768,
            107.0232,
            103.1707,
            100.875,
            100.2506,
            100.7538,
            102.0699,
            104.2198,
            106.8798,
            109.0002,
            109.4593,
            108.1145,
            105.869,
            103.8146,
            102.6776,
            102.8261,
            104.2737,
            106.6691,
            109.5782,
            112.7604,
            115.7212,
            117.1631,
            116.1982,
            113.8963,
            112.0879,
            111.4842,
            111.721,
            111.8653,
            110.97,
            108.9727,
            106.7498,
            105.3448,
            105.4416,
            107.0455,
            109.091,
            110.0334,
            109.4946,
            108.3771,
            107.0735,
            104.887,
            101.6682,
            98.8781,
            98.2808,
            100.0209,
            102.43,
            103.9117,
            104.5166,
            105.2771,
            106.4641,
            106.903,
            105.0939,
            100.7823,
            95.5562,
            91.8734,
            91.1379,
            92.9357,
            95.9773,
            99.2943,
            102.5562,
            105.7544,
            109.2454,
            113.6948,
            118.9426,
            123.6623,
            127.099,
            129.9195,
            132.861,
            135.4601,
            136.1828,
            134.0848,
            130.4374,
            127.4896,
            126.0018,
            125.6268,
            126.7005,
            129.3435,
            131.7547,
            131.8327,
            129.9386,
            128.2451,
            127.6646,
            127.1528,
            125.1535,
            120.562,
            114.1921,
            109.0889,
            107.3359,
            107.8091,
            108.2823,
            108.0809,
            108.1296,
            109.6445,
            112.6517,
            115.5331,
            116.8871,
            117.0221,
            116.7635,
            116.1928,
            114.814,
            112.4562,
            110.1089,
            108.7756,
            107.872,
            106.4213,
            104.6249,
            103.2618,
            102.8682,
            103.6785,
            105.6194,
            108.2549,
            110.8456,
            112.5525,
            112.8259,
            111.7668,
            110.0187,
            108.2983,
            107.1052,
            106.6922,
            107.0792,
            108.0203,
            109.1988,
            110.5042,
            111.5599,
            111.8037,
            111.9315,
            113.3548,
            115.588,
            116.7137,
            116.5705,
            116.9089,
            118.6864,
            120.9669,
            122.0702,
            120.9315,
            117.7234,
            113.794
        ],
        "itt": [
            0.0,
            0.0,
            0.0,
            0.0,
            0.0,
            0.0,
            0.0,
            0.0,
            0.0,
            0.0,
            0.0,
            0.0,
            0.0,
            0.0,
            0.0,
            1.0,
            0.0,
            0.0,
            0.0,
            0.0,
            0.0,
            0.0,
            0.0,
            0.0,
            0.0,
            0.0,
            0.0,
            0.0,
            0.0,
            0.0,
            0.0,
            0.0,
            0.0,
            0.0,
            0.0,
            0.0,
            1.0,
            0.0,
            0.0,
            0.0,
            0.0,
            0.0,
            0.0,
            0.0,
            0.0,
            0.0,
            0.0,
            0.0,
            0.0,
            0.0,
            0.0,
            0.0,
            0.0,
            0.0,
            0.0,
            1.0,
            1.0,
            0.0,
            0.0,
            0.0,
            0.0,
            0.0,
            0.0,
            0.0,
            0.0,
            0.0,
            0.0,
            0.0,
            0.0,
            0.0,
            0.0,
            0.0,
            0.0,
            1.0,
            1.0,
            0.0,
            0.0,
            0.0,
            0.0,
            0.0,
            0.0,
            0.0,
            0.0,
            0.0,
            0.0,
            0.0,
            0.0,
            0.0,
            0.0,
            0.0,
            0.0,
            0.0,
            1.0,
            0.0,
            0.0,
            0.0,
            0.0,
            0.0,
            0.0,
            0.0,
            0.0,
            0.0,
            0.0,
            0.0,
            0.0,
            0.0,
            0.0,
            0.0,
            0.0,
            0.0,
            0.0,
            1.0,
            0.0,
            0.0,
            0.0,
            0.0,
            0.0,
            0.0,
            0.0,
            0.0,
            0.0,
            0.0,
            0.0,
            0.0,
            0.0,
            0.0,
            0.0,
            0.0,
            0.0,
            0.0,
            1.0,
            0.0,
            0.0,
            0.0,
            0.0,
            0.0,
            0.0,
            0.0,
            0.0,
            0.0,
            0.0,
            0.0,
            0.0,
            0.0,
            0.0,
            2.0,
            0.0,
            0.0,
            0.0,
            0.0,
            0.0,
            0.0,
            0.0,
            0.0,
            0.0,
            0.0,
            0.0,
            0.0,
            0.0,
            0.0,
            0.0,
            0.0,
            1.0,
            1.0,
            0.0,
            0.0,
            0.0,
            0.0,
            0.0,
            0.0,
            0.0,
            0.0,
            0.0,
            0.0,
            0.0,
            0.0,
            0.0,
            0.0,
            0.0,
            0.0,
            0.0,
            1.0,
            0.0,
            0.0,
            0.0,
            0.0,
            0.0,
            0.0,
            0.0,
            0.0,
            0.0,
            0.0,
            0.0,
            0.0,
            0.0,
            0.0,
            0.0,
            0.0,
            1.0,
            1.0,
            0.0
        ],
        "melcal": [
            9.8763,
            9.8237,
            9.7551,
            9.7492,
            9.7421,
            9.7453,
            9.7436,
            9.7283,
            9.6971,
            9.6903,
            9.688,
            9.6559,
            9.5325,
            9.4855,
            9.4855,
            9.4884,
            9.4852,
            9.4851,
            9.4916,
            9.5133,
            9.5699,
            9.6015,
            9.604,
            9.6014,
            9.603,
            9.6021,
            9.6051,
            9.6207,
            9.649,
            9.6803,
            9.7096,
            9.7553,
            9.7935,
            9.798,
            9.8089,
            9.8294,
            9.8336,
            9.8511,
            9.8566,
            9.8569,
            9.864,
            9.8797,
            9.9158,
            9.929,
            9.9538,
            10.0426,
            10.1283,
            10.238,
            10.2885,
            10.2385,
            9.997,
            9.7399,
            9.6618,
            9.7029,
            9.7815,
            9.8244,
            9.8254,
            9.8254,
            9.8281,
            9.8274,
            9.8273,
            9.8279,
            9.8278,
            9.8174,
            9.7643,
            9.6009,
            9.5059,
            9.4943,
            9.5208,
            9.5632,
            9.5861,
            9.5917,
            9.5902,
            9.5615,
            9.5027,
            9.466,
            9.4604,
            9.4611,
            9.4646,
            9.4627,
            9.4591,
            9.4586,
            9.4598,
            9.4606,
            9.4645,
            9.4615,
            9.4602,
            9.4669,
            9.5046,
            9.5226,
            9.5248,
            9.5298,
            9.5472,
            9.5683,
            9.5703,
            9.5676,
            9.5694,
            9.5689,
            9.572,
            9.5686,
            9.568,
            9.5674,
            9.5628,
            9.5589,
            9.5495,
            9.5433,
            9.5675,
            9.609,
            9.6318,
            9.6488,
            9.6597,
            9.6928,
            9.7242,
            9.8269,
            9.9273,
            9.5019,
            9.2711,
            9.2031,
            9.2228,
            9.2682,
            9.3005,
            9.3434,
            9.4061,
            9.4634,
            9.5069,
            9.5307,
            9.5329,
            9.5249,
            9.4711,
            10.1602,
            10.9816,
            10.8523,
            10.6322,
            10.4678,
            10.2426,
            10.2187,
            10.3664,
            10.0583,
            9.8258,
            10.2505,
            10.2772,
            9.9927,
            9.7683,
            9.7313,
            9.8882,
            10.3267,
            10.3695,
            9.8905,
            9.5896,
            9.438,
            9.4014,
            9.4014,
            9.4015,
            9.4006,
            9.4169,
            9.4253,
            9.4322,
            9.4404,
            9.4525,
            9.4556,
            9.4572,
            9.4548,
            9.4579,
            9.4606,
            9.4553,
            9.455,
            9.4515,
            9.425,
            9.3637,
            9.3315,
            9.3025,
            9.2761,
            9.2656,
            9.2553,
            9.2554,
            9.2555,
            9.2538,
            9.2561,
            9.254,
            9.2543,
            9.2492,
            9.2514,
            9.2674,
            9.3217,
            9.3986,
            9.4837,
            9.5144,
            9.515,
            9.5218,
            9.5406,
            9.6335,
            9.7376,
            9.6179,
            9.591,
            9.6015,
            9.7738,
            10.0729,
            9.9992,
            9.9102,
            9.8149,
            9.4466
        ],
        "spor": [
            50.4334,
            49.8624,
            48.9286,
            47.9396,
            48.2661,
            50.5767,
            53.2705,
            53.6414,
            50.5864,
            45.595,
            40.9666,
            37.7097,
            35.4712,
            33.5811,
            31.6908,
            29.8385,
            28.2124,
            27.0282,
            26.6212,
            27.4361,
            29.7007,
            33.0272,
            36.4144,
            38.7137,
            39.2519,
            38.1809,
            36.2565,
            34.3035,
            32.9096,
            32.4119,
            32.8757,
            34.1072,
            35.7592,
            37.4184,
            38.8018,
            39.9742,
            41.0451,
            41.5798,
            40.8391,
            38.874,
            37.0954,
            37.1133,
            38.7663,
            40.1645,
            40.0229,
            38.9563,
            38.2677,
            38.4311,
            38.9568,
            39.3238,
            39.4322,
            38.932,
            37.4272,
            35.7916,
            35.7695,
            38.0918,
            41.9197,
            45.6629,
            48.0011,
            48.8069,
            48.9828,
            49.2499,
            49.5045,
            49.1344,
            47.6559,
            45.1038,
            42.0249,
            39.3004,
            37.6768,
            37.2353,
            37.5911,
            38.5218,
            40.0423,
            41.9235,
            43.4231,
            43.7477,
            42.7967,
            41.2087,
            39.7557,
            38.9516,
            39.0567,
            40.0804,
            41.7745,
            43.8318,
            46.0823,
            48.1763,
            49.196,
            48.5136,
            46.8856,
            45.6067,
            45.1797,
            45.3472,
            45.4493,
            44.8161,
            43.4036,
            41.8315,
            40.8379,
            40.9064,
            42.0406,
            43.4872,
            44.1538,
            43.7727,
            42.9824,
            42.0605,
            40.5142,
            38.2378,
            36.2646,
            35.8421,
            37.0728,
            38.7765,
            39.8244,
            40.2522,
            40.79,
            41.6295,
            41.9399,
            40.6604,
            37.6112,
            33.9153,
            31.3108,
            30.7906,
            32.062,
            34.2131,
            36.5589,
            38.8658,
            41.1276,
            43.5965,
            46.7431,
            50.4545,
            53.7923,
            56.2228,
            58.2175,
            60.2978,
            62.1358,
            62.647,
            61.1633,
            58.5837,
            56.499,
            55.4468,
            55.1816,
            55.9409,
            57.8101,
            59.5154,
            59.5705,
            58.231,
            57.0333,
            56.6227,
            56.2608,
            54.8469,
            51.5997,
            47.0949,
            43.4858,
            42.2461,
            42.5807,
            42.9153,
            42.7729,
            42.8073,
            43.8787,
            46.0055,
            48.0432,
            49.0008,
            49.0962,
            48.9133,
            48.5098,
            47.5347,
            45.8672,
            44.2071,
            43.2642,
            42.6252,
            41.5993,
            40.3288,
            39.3648,
            39.0864,
            39.6595,
            41.0321,
            42.896,
            44.7281,
            45.9353,
            46.1287,
            45.3796,
            44.1433,
            42.9267,
            42.0829,
            41.7908,
            42.0645,
            42.7301,
            43.5635,
            44.4867,
            45.2333,
            45.4058,
            45.4961,
            46.5027,
            48.082,
            48.8782,
            48.7769,
            49.0162,
            50.2733,
            51.8861,
            52.6663,
            51.861,
            49.5922,
            46.8133
        ]
    },
    "other": "THANK YOU FOR USING ELI WIRELINE SERVICES, HAYS, KS. ( 785 ) 628-6395DIRECTIONS"
}